File: data/thermal_properties/102323_9_PEGMEA_1_PEGDA_0_none_0_none_1.txt
Filename	10-23-23-pegda-pegmea-0a380-0litfsi
Instrument name	DSC2A-01583 (172.23.160.11)
Operator	JJS
rundate	10/7/2024
Sample name	10-23-23-pegda-pegmea-0a380-0litfsi
proceduresegments	Ramp 5.00 °C/min to 120.00 °C; Ramp 5.00 °C/min to -100.00 °C; Ramp 5.00 °C/min to 120.00 °C; Ramp 5.00 °C/min to -100.00 °C; Ramp 5.00 °C/min to 120.00 °C
[step]
Ramp 5.00 °C/min to -100.00 °C
Time	Temperature	Heat Flow (Normalized)
min	°C	W/g
19.01	119.16	-0.187
19.13	119.51	-0.202
19.28	119.13	-0.028
19.43	118.52	0.069
19.57	117.87	0.107
19.72	117.14	0.122
19.87	116.39	0.128
20.03	115.63	0.129
20.16	114.95	0.131
20.32	114.18	0.131
20.46	113.47	0.132
20.61	112.73	0.132
20.76	111.99	0.133
20.90	111.25	0.133
21.05	110.51	0.133
21.20	109.79	0.133
21.34	109.08	0.133
21.49	108.30	0.133
21.64	107.56	0.133
21.78	106.85	0.133
21.93	106.11	0.133
22.05	105.52	0.133
22.23	104.63	0.133
22.38	103.87	0.133
22.53	103.14	0.132
22.68	102.39	0.132
22.82	101.69	0.132
22.97	100.93	0.132
23.12	100.20	0.132
23.26	99.47	0.132
23.41	98.72	0.132
23.56	97.98	0.132
23.71	97.26	0.132
23.85	96.53	0.132
24.01	95.75	0.131
24.15	95.03	0.131
24.29	94.31	0.131
24.44	93.57	0.131
24.59	92.83	0.131
24.74	92.08	0.131
24.88	91.36	0.131
25.04	90.60	0.131
25.18	89.86	0.131
25.33	89.13	0.131
25.48	88.39	0.131
25.62	87.69	0.131
25.77	86.95	0.131
25.92	86.19	0.134
26.07	85.46	0.134
26.21	84.73	0.133
26.36	83.97	0.132
26.51	83.24	0.132
26.66	82.50	0.132
26.80	81.79	0.132
26.95	81.03	0.131
27.10	80.28	0.131
27.24	79.57	0.131
27.39	78.83	0.131
27.54	78.09	0.130
27.69	77.35	0.130
27.83	76.62	0.130
27.99	75.86	0.130
28.13	75.13	0.130
28.28	74.41	0.130
28.42	73.68	0.130
28.58	72.92	0.130
28.72	72.20	0.130
28.87	71.47	0.129
29.02	70.69	0.129
29.16	69.99	0.129
29.31	69.23	0.129
29.46	68.52	0.129
29.61	67.77	0.130
29.75	67.06	0.130
29.90	66.30	0.130
30.05	65.55	0.129
30.19	64.83	0.129
30.34	64.09	0.129
30.48	63.38	0.129
30.63	62.64	0.129
30.78	61.88	0.129
30.93	61.14	0.129
31.08	60.40	0.129
31.23	59.67	0.129
31.33	59.13	0.129
31.52	58.19	0.128
31.67	57.45	0.128
31.82	56.71	0.128
31.97	55.97	0.128
32.11	55.24	0.128
32.26	54.52	0.128
32.44	53.59	0.128
32.56	53.04	0.128
32.70	52.30	0.128
32.85	51.57	0.128
33.00	50.80	0.128
33.14	50.10	0.128
33.29	49.34	0.128
33.44	48.63	0.128
33.59	47.89	0.128
33.73	47.14	0.128
33.88	46.40	0.128
34.02	45.70	0.128
34.17	44.96	0.128
34.33	44.16	0.128
34.47	43.46	0.127
34.62	42.72	0.127
34.76	42.00	0.127
34.91	41.25	0.127
35.06	40.51	0.127
35.21	39.76	0.127
35.36	39.03	0.127
35.51	38.28	0.127
35.65	37.56	0.127
35.80	36.83	0.127
35.94	36.10	0.127
36.09	35.36	0.127
36.24	34.61	0.127
36.39	33.88	0.127
36.54	33.14	0.127
36.69	32.39	0.127
36.83	31.66	0.127
36.98	30.92	0.127
37.13	30.18	0.127
37.28	29.45	0.127
37.42	28.74	0.127
37.57	27.99	0.127
37.72	27.25	0.126
37.87	26.49	0.127
38.01	25.80	0.127
38.17	25.00	0.126
38.31	24.29	0.126
38.46	23.56	0.126
38.60	22.82	0.126
38.75	22.10	0.126
38.90	21.34	0.126
39.05	20.60	0.126
39.20	19.85	0.126
39.35	19.10	0.126
39.49	18.40	0.126
39.64	17.66	0.126
39.78	16.92	0.126
39.93	16.19	0.126
40.08	15.44	0.125
40.22	14.73	0.125
40.37	13.98	0.125
40.51	13.29	0.125
40.66	12.57	0.125
40.82	11.76	0.125
40.96	11.03	0.125
41.11	10.28	0.125
41.26	9.56	0.125
41.41	8.81	0.125
41.56	8.07	0.125
41.70	7.34	0.125
41.85	6.60	0.125
42.00	5.85	0.125
42.14	5.14	0.125
42.29	4.38	0.125
42.44	3.67	0.125
42.59	2.93	0.125
42.73	2.19	0.125
42.88	1.45	0.125
43.03	0.71	0.125
43.18	-0.05	0.125
43.32	-0.74	0.125
43.47	-1.51	0.125
43.62	-2.24	0.125
43.77	-2.98	0.125
43.91	-3.69	0.125
44.06	-4.45	0.125
44.21	-5.18	0.125
44.36	-5.93	0.125
44.50	-6.65	0.125
44.65	-7.38	0.125
44.80	-8.13	0.125
44.95	-8.87	0.125
45.09	-9.61	0.125
45.24	-10.32	0.125
45.38	-11.05	0.125
45.53	-11.79	0.125
45.68	-12.53	0.125
45.84	-13.31	0.125
46.01	-14.19	0.125
46.13	-14.75	0.125
46.28	-15.49	0.125
46.42	-16.22	0.126
46.57	-16.95	0.126
46.72	-17.71	0.126
46.86	-18.44	0.126
47.01	-19.17	0.126
47.16	-19.91	0.126
47.30	-20.63	0.126
47.45	-21.38	0.126
47.60	-22.12	0.126
47.75	-22.86	0.126
47.89	-23.57	0.126
48.04	-24.32	0.126
48.19	-25.06	0.126
48.34	-25.83	0.126
48.49	-26.53	0.126
48.63	-27.26	0.126
48.78	-27.99	0.127
48.93	-28.74	0.127
49.08	-29.49	0.127
49.22	-30.19	0.127
49.37	-30.94	0.127
49.51	-31.65	0.127
49.67	-32.46	0.127
49.81	-33.17	0.127
49.96	-33.92	0.127
50.11	-34.64	0.127
50.26	-35.37	0.127
50.40	-36.11	0.127
50.55	-36.85	0.127
50.68	-37.48	0.127
50.85	-38.35	0.127
50.99	-39.07	0.127
51.14	-39.82	0.128
51.28	-40.52	0.127
51.44	-41.28	0.127
51.58	-42.01	0.128
51.73	-42.76	0.128
51.88	-43.48	0.128
52.02	-44.22	0.128
52.17	-44.93	0.128
52.32	-45.71	0.128
52.47	-46.44	0.128
52.62	-47.18	0.128
52.76	-47.91	0.127
52.91	-48.63	0.127
53.06	-49.40	0.127
53.21	-50.12	0.127
53.36	-50.88	0.127
53.50	-51.61	0.127
53.64	-52.31	0.126
53.79	-53.07	0.126
53.94	-53.81	0.126
54.09	-54.55	0.119
54.24	-55.29	0.121
54.38	-56.02	0.121
54.54	-56.77	0.121
54.68	-57.51	0.121
54.83	-58.26	0.120
54.98	-58.99	0.118
55.12	-59.72	0.116
55.27	-60.46	0.114
55.45	-61.37	0.111
55.56	-61.90	0.109
55.71	-62.65	0.106
55.86	-63.43	0.103
56.01	-64.15	0.099
56.16	-64.90	0.095
56.30	-65.64	0.092
56.45	-66.37	0.089
56.60	-67.14	0.086
56.75	-67.88	0.082
56.89	-68.61	0.080
57.04	-69.34	0.077
57.19	-70.09	0.074
57.34	-70.85	0.072
57.49	-71.57	0.070
57.63	-72.31	0.068
57.78	-73.05	0.066
57.93	-73.78	0.065
58.08	-74.54	0.063
58.22	-75.24	0.062
58.37	-76.01	0.061
58.51	-76.68	0.059
58.66	-77.48	0.058
58.81	-78.22	0.057
58.96	-78.94	0.056
59.11	-79.69	0.055
59.25	-80.39	0.054
59.40	-81.14	0.054
59.55	-81.90	0.053
59.70	-82.64	0.052
59.82	-83.24	0.052
59.99	-84.10	0.051
60.14	-84.82	0.050
60.29	-85.58	0.050
60.44	-86.31	0.049
60.58	-87.02	0.049
60.73	-87.76	0.048
60.88	-88.50	0.048
61.02	-89.23	0.048
61.17	-89.97	0.047
61.32	-90.70	0.047
61.46	-91.44	0.046
61.61	-92.18	0.046
61.76	-92.93	0.046
61.91	-93.65	0.045
62.06	-94.38	0.045
62.20	-95.12	0.045
62.34	-95.82	0.044
62.49	-96.56	0.044
62.65	-97.33	0.044
62.79	-98.04	0.043
62.94	-98.81	0.043
63.00	-99.10	0.043

[step]
Ramp 5.00 °C/min to 120.00 °C
Time	Temperature	Heat Flow (Normalized)
min	°C	W/g
63.01	-99.11	0.043
63.15	-99.41	0.068
63.29	-99.02	-0.011
63.44	-98.41	-0.061
63.62	-97.58	-0.083
63.74	-97.01	-0.089
63.88	-96.29	-0.093
64.03	-95.58	-0.094
64.18	-94.81	-0.095
64.32	-94.12	-0.096
64.47	-93.36	-0.097
64.62	-92.63	-0.097
64.76	-91.89	-0.098
64.91	-91.17	-0.098
65.06	-90.44	-0.099
65.21	-89.66	-0.099
65.35	-88.96	-0.099
65.50	-88.21	-0.099
65.64	-87.51	-0.100
65.79	-86.76	-0.100
65.94	-86.02	-0.100
66.08	-85.31	-0.101
66.23	-84.56	-0.101
66.38	-83.85	-0.101
66.53	-83.08	-0.102
66.67	-82.39	-0.102
66.81	-81.66	-0.102
66.96	-80.90	-0.103
67.11	-80.18	-0.103
67.25	-79.46	-0.104
67.40	-78.73	-0.104
67.55	-77.96	-0.105
67.70	-77.22	-0.105
67.84	-76.53	-0.105
67.99	-75.78	-0.106
68.14	-75.04	-0.107
68.28	-74.32	-0.107
68.43	-73.59	-0.108
68.58	-72.85	-0.109
68.73	-72.11	-0.110
68.87	-71.39	-0.111
69.03	-70.61	-0.112
69.16	-69.93	-0.113
69.31	-69.18	-0.114
69.46	-68.44	-0.116
69.60	-67.72	-0.118
69.75	-67.00	-0.120
69.89	-66.29	-0.122
70.04	-65.54	-0.125
70.19	-64.80	-0.129
70.33	-64.12	-0.132
70.48	-63.36	-0.137
70.63	-62.64	-0.142
70.78	-61.89	-0.146
70.92	-61.17	-0.150
71.07	-60.44	-0.155
71.22	-59.70	-0.158
71.36	-58.99	-0.162
71.51	-58.23	-0.165
71.65	-57.54	-0.167
71.80	-56.82	-0.169
71.95	-56.08	-0.171
72.09	-55.36	-0.172
72.25	-54.57	-0.174
72.39	-53.85	-0.175
72.53	-53.15	-0.176
72.69	-52.35	-0.176
72.83	-51.67	-0.177
72.97	-50.95	-0.177
73.12	-50.20	-0.178
73.27	-49.45	-0.178
73.41	-48.74	-0.178
73.56	-48.00	-0.179
73.71	-47.25	-0.179
73.86	-46.49	-0.179
74.00	-45.79	-0.179
74.15	-45.04	-0.179
74.30	-44.31	-0.179
74.44	-43.60	-0.179
74.59	-42.84	-0.179
74.74	-42.10	-0.179
74.88	-41.41	-0.179
75.03	-40.68	-0.179
75.17	-39.95	-0.179
75.32	-39.19	-0.179
75.47	-38.44	-0.179
75.62	-37.72	-0.179
75.76	-36.98	-0.179
75.91	-36.25	-0.178
76.05	-35.54	-0.178
76.20	-34.82	-0.178
76.35	-34.06	-0.178
76.50	-33.31	-0.178
76.65	-32.56	-0.178
76.79	-31.84	-0.178
76.94	-31.11	-0.178
77.09	-30.36	-0.178
77.23	-29.64	-0.178
77.38	-28.88	-0.178
77.53	-28.15	-0.177
77.67	-27.43	-0.177
77.81	-26.73	-0.177
77.96	-25.97	-0.177
78.11	-25.22	-0.177
78.25	-24.52	-0.177
78.40	-23.79	-0.177
78.55	-23.06	-0.177
78.69	-22.35	-0.177
78.85	-21.53	-0.177
78.99	-20.85	-0.177
79.14	-20.09	-0.177
79.28	-19.39	-0.177
79.43	-18.64	-0.177
79.57	-17.92	-0.176
79.72	-17.17	-0.176
79.85	-16.53	-0.176
80.00	-15.76	-0.176
80.16	-14.96	-0.176
80.31	-14.23	-0.176
80.45	-13.55	-0.176
80.60	-12.76	-0.176
80.75	-12.05	-0.176
80.90	-11.28	-0.176
81.04	-10.58	-0.176
81.19	-9.85	-0.176
81.34	-9.09	-0.176
81.48	-8.37	-0.176
81.63	-7.63	-0.176
81.77	-6.91	-0.176
81.92	-6.16	-0.176
82.07	-5.43	-0.176
82.21	-4.73	-0.176
82.37	-3.94	-0.175
82.51	-3.22	-0.175
82.65	-2.50	-0.175
82.80	-1.75	-0.175
82.95	-1.01	-0.175
83.10	-0.26	-0.175
83.24	0.42	-0.175
83.39	1.18	-0.175
83.53	1.88	-0.175
83.69	2.65	-0.175
83.83	3.39	-0.175
83.98	4.11	-0.176
84.13	4.86	-0.176
84.27	5.59	-0.176
84.42	6.33	-0.176
84.56	7.02	-0.176
84.71	7.80	-0.176
84.85	8.51	-0.176
85.00	9.23	-0.176
85.15	9.97	-0.176
85.29	10.70	-0.176
85.44	11.45	-0.176
85.59	12.20	-0.176
85.73	12.90	-0.176
85.88	13.65	-0.176
86.01	14.31	-0.176
86.18	15.12	-0.176
86.31	15.81	-0.176
86.47	16.57	-0.176
86.62	17.35	-0.176
86.76	18.02	-0.177
86.91	18.79	-0.177
87.06	19.52	-0.177
87.21	20.29	-0.177
87.35	21.00	-0.177
87.49	21.70	-0.177
87.64	22.42	-0.177
87.80	23.22	-0.177
87.94	23.92	-0.177
88.08	24.63	-0.177
88.23	25.38	-0.177
88.38	26.12	-0.177
88.53	26.89	-0.178
88.67	27.58	-0.178
88.82	28.33	-0.178
88.96	29.04	-0.178
89.11	29.79	-0.178
89.25	30.52	-0.178
89.40	31.22	-0.178
89.56	32.07	-0.178
89.69	32.71	-0.178
89.84	33.46	-0.178
90.00	34.22	-0.178
90.14	34.94	-0.178
90.29	35.67	-0.178
90.43	36.38	-0.178
90.57	37.11	-0.178
90.73	37.88	-0.178
90.87	38.59	-0.178
91.02	39.35	-0.179
91.16	40.07	-0.179
91.30	40.78	-0.179
91.46	41.56	-0.179
91.60	42.28	-0.179
91.75	43.01	-0.179
91.90	43.74	-0.179
92.04	44.47	-0.179
92.19	45.22	-0.179
92.34	45.93	-0.179
92.48	46.66	-0.179
92.63	47.41	-0.179
92.78	48.14	-0.179
92.92	48.87	-0.179
93.07	49.60	-0.179
93.21	50.31	-0.179
93.36	51.04	-0.180
93.51	51.83	-0.180
93.66	52.56	-0.180
93.80	53.26	-0.180
93.95	54.00	-0.180
94.09	54.73	-0.180
94.24	55.47	-0.180
94.40	56.24	-0.180
94.53	56.92	-0.180
94.69	57.71	-0.180
94.83	58.40	-0.180
94.97	59.12	-0.180
95.12	59.87	-0.180
95.27	60.61	-0.181
95.42	61.36	-0.181
95.56	62.08	-0.181
95.72	62.87	-0.181
95.85	63.51	-0.181
96.01	64.30	-0.181
96.14	64.97	-0.181
96.30	65.75	-0.181
96.44	66.45	-0.181
96.59	67.22	-0.181
96.74	67.97	-0.181
96.86	68.58	-0.181
97.03	69.43	-0.182
97.18	70.15	-0.182
97.33	70.89	-0.182
97.47	71.61	-0.182
97.62	72.38	-0.182
97.76	73.06	-0.182
97.91	73.82	-0.182
98.08	74.67	-0.182
98.21	75.33	-0.182
98.35	76.03	-0.183
98.50	76.75	-0.183
98.65	77.50	-0.183
98.79	78.21	-0.183
98.94	78.95	-0.183
99.08	79.66	-0.183
99.23	80.40	-0.183
99.37	81.13	-0.183
99.48	81.67	-0.183
99.66	82.60	-0.183
99.82	83.38	-0.184
99.95	84.04	-0.184
100.11	84.85	-0.184
100.25	85.52	-0.184
100.40	86.29	-0.184
100.55	87.05	-0.184
100.70	87.75	-0.184
100.84	88.49	-0.184
100.99	89.20	-0.184
101.14	89.99	-0.184
101.28	90.67	-0.184
101.43	91.41	-0.184
101.58	92.17	-0.184
101.71	92.83	-0.184
101.88	93.68	-0.184
102.01	94.31	-0.184
102.16	95.09	-0.184
102.31	95.84	-0.184
102.45	96.50	-0.184
102.60	97.31	-0.185
102.75	98.05	-0.185
102.89	98.75	-0.185
103.05	99.53	-0.186
103.20	100.26	-0.187
103.34	100.98	-0.188
103.49	101.72	-0.188
103.63	102.42	-0.188
103.78	103.16	-0.187
103.92	103.88	-0.187
104.07	104.64	-0.186
104.22	105.39	-0.186
104.36	106.11	-0.186
104.51	106.85	-0.186
104.66	107.57	-0.187
104.80	108.31	-0.187
104.91	108.83	-0.187
105.10	109.78	-0.187
105.25	110.52	-0.187
105.39	111.22	-0.187
105.54	112.00	-0.187
105.68	112.69	-0.187
105.84	113.46	-0.187
105.98	114.17	-0.187
106.12	114.90	-0.187
106.27	115.63	-0.188
106.41	116.33	-0.188
106.56	117.10	-0.188
106.71	117.85	-0.188
106.86	118.59	-0.188
107.00	119.30	-0.188