File: data/thermal_properties/102323_9_PEGMEA_1_PEGDA_0_none_0_none_2.txt
Filename	10-23-23-pegda-pegmea-0a380-0litfsi
Instrument name	DSC2A-01583 (172.23.160.11)
Operator	JJS
rundate	10/7/2024
Sample name	10-23-23-pegda-pegmea-0a380-0litfsi
proceduresegments	Ramp 5.00 °C/min to 120.00 °C; Ramp 5.00 °C/min to -100.00 °C; Ramp 5.00 °C/min to 120.00 °C; Ramp 5.00 °C/min to -100.00 °C; Ramp 5.00 °C/min to 120.00 °C
[step]
Ramp 5.00 °C/min to -100.00 °C
Time	Temperature	Heat Flow (Normalized)
min	°C	W/g
107.00	119.32	-0.188
107.15	119.65	-0.189
107.30	119.24	-0.016
107.45	118.60	0.075
107.59	117.95	0.110
107.74	117.20	0.123
107.89	116.46	0.128
108.03	115.78	0.129
108.19	114.95	0.131
108.33	114.27	0.131
108.47	113.57	0.132
108.63	112.79	0.132
108.77	112.09	0.132
108.92	111.34	0.133
109.07	110.57	0.133
109.22	109.82	0.133
109.35	109.15	0.133
109.51	108.37	0.133
109.66	107.64	0.133
109.80	106.91	0.133
109.95	106.17	0.133
110.10	105.42	0.133
110.25	104.70	0.133
110.39	103.98	0.132
110.54	103.26	0.132
110.69	102.49	0.132
110.84	101.73	0.132
110.99	101.01	0.132
111.13	100.28	0.132
111.28	99.52	0.132
111.43	98.79	0.132
111.58	98.06	0.132
111.73	97.31	0.132
111.87	96.59	0.132
112.02	95.82	0.131
112.16	95.11	0.131
112.32	94.36	0.131
112.46	93.66	0.131
112.61	92.88	0.131
112.75	92.18	0.131
112.91	91.40	0.131
113.05	90.69	0.131
113.20	89.93	0.131
113.35	89.22	0.131
113.49	88.48	0.131
113.63	87.78	0.131
113.79	86.98	0.131
113.93	86.28	0.131
114.08	85.54	0.133
114.24	84.77	0.132
114.38	84.06	0.132
114.52	83.34	0.132
114.68	82.57	0.132
114.82	81.85	0.131
114.96	81.13	0.131
115.11	80.38	0.131
115.25	79.68	0.131
115.41	78.87	0.130
115.56	78.16	0.130
115.69	77.49	0.130
115.86	76.66	0.130
116.00	75.95	0.130
116.14	75.25	0.130
116.31	74.42	0.130
116.45	73.72	0.130
116.59	73.00	0.130
116.73	72.29	0.130
116.86	71.63	0.129
117.03	70.79	0.129
117.18	70.06	0.129
117.33	69.31	0.129
117.48	68.57	0.129
117.62	67.84	0.129
117.76	67.13	0.129
117.92	66.37	0.129
118.07	65.62	0.129
118.21	64.92	0.129
118.35	64.20	0.129
118.50	63.45	0.129
118.66	62.68	0.129
118.80	61.96	0.129
118.95	61.20	0.129
119.10	60.49	0.129
119.25	59.73	0.129
119.39	59.01	0.128
119.53	58.31	0.128
119.69	57.51	0.128
119.84	56.77	0.128
119.99	56.03	0.128
120.13	55.30	0.128
120.28	54.58	0.128
120.42	53.86	0.128
120.56	53.14	0.128
120.71	52.39	0.128
120.86	51.65	0.128
121.02	50.89	0.128
121.16	50.15	0.128
121.31	49.43	0.128
121.46	48.69	0.128
121.61	47.94	0.128
121.75	47.23	0.128
121.90	46.45	0.128
122.06	45.68	0.128
122.20	44.98	0.127
122.34	44.26	0.127
122.49	43.54	0.127
122.64	42.80	0.127
122.78	42.09	0.127
122.94	41.30	0.127
123.08	40.56	0.127
123.22	39.87	0.127
123.38	39.09	0.127
123.52	38.38	0.127
123.66	37.66	0.127
123.82	36.89	0.127
123.96	36.17	0.127
124.11	35.42	0.127
124.26	34.68	0.127
124.41	33.95	0.127
124.55	33.26	0.127
124.71	32.43	0.127
124.85	31.71	0.127
124.98	31.07	0.127
125.15	30.26	0.127
125.30	29.50	0.127
125.44	28.79	0.127
125.59	28.06	0.127
125.73	27.33	0.127
125.89	26.56	0.127
126.03	25.83	0.127
126.18	25.09	0.126
126.32	24.37	0.126
126.45	23.77	0.126
126.61	22.92	0.126
126.77	22.15	0.126
126.91	21.44	0.126
127.06	20.69	0.126
127.21	19.92	0.126
127.36	19.19	0.126
127.50	18.49	0.126
127.65	17.72	0.126
127.80	16.99	0.126
127.95	16.25	0.126
128.10	15.51	0.126
128.25	14.76	0.126
128.40	14.01	0.126
128.54	13.29	0.126
128.68	12.62	0.125
128.85	11.74	0.125
128.98	11.09	0.125
129.12	10.38	0.125
129.28	9.60	0.125
129.42	8.89	0.125
129.58	8.13	0.125
129.71	7.44	0.125
129.87	6.65	0.125
130.01	5.95	0.125
130.16	5.20	0.125
130.30	4.51	0.125
130.45	3.74	0.125
130.60	2.98	0.125
130.75	2.25	0.125
130.90	1.52	0.125
131.05	0.77	0.125
131.20	0.03	0.125
131.34	-0.67	0.125
131.49	-1.42	0.125
131.63	-2.13	0.125
131.79	-2.91	0.125
131.92	-3.59	0.125
132.08	-4.36	0.125
132.22	-5.08	0.125
132.37	-5.85	0.125
132.51	-6.56	0.125
132.66	-7.29	0.125
132.81	-8.04	0.125
132.97	-8.81	0.125
133.11	-9.53	0.125
133.25	-10.24	0.125
133.40	-11.00	0.125
133.55	-11.73	0.125
133.71	-12.51	0.125
133.85	-13.20	0.125
133.99	-13.94	0.125
134.15	-14.71	0.125
134.29	-15.44	0.125
134.43	-16.13	0.125
134.59	-16.93	0.126
134.73	-17.63	0.126
134.87	-18.33	0.126
135.03	-19.10	0.126
135.17	-19.79	0.126
135.28	-20.34	0.126
135.47	-21.30	0.126
135.62	-22.05	0.126
135.76	-22.75	0.126
135.91	-23.52	0.126
136.07	-24.28	0.126
136.21	-24.98	0.126
136.35	-25.71	0.126
136.50	-26.42	0.126
136.65	-27.17	0.126
136.80	-27.95	0.127
136.95	-28.68	0.127
137.09	-29.40	0.127
137.24	-30.15	0.127
137.39	-30.90	0.127
137.54	-31.64	0.127
137.68	-32.36	0.127
137.83	-33.09	0.127
137.98	-33.83	0.127
138.12	-34.56	0.127
138.27	-35.30	0.127
138.42	-36.03	0.127
138.57	-36.78	0.127
138.71	-37.50	0.127
138.86	-38.24	0.127
139.00	-38.96	0.127
139.16	-39.74	0.127
139.30	-40.46	0.127
139.45	-41.18	0.127
139.60	-41.92	0.127
139.75	-42.70	0.127
139.90	-43.44	0.124
140.05	-44.18	0.125
140.19	-44.90	0.126
140.34	-45.65	0.126
140.49	-46.38	0.126
140.63	-47.10	0.126
140.78	-47.83	0.127
140.93	-48.57	0.126
141.08	-49.33	0.126
141.21	-50.01	0.126
141.37	-50.79	0.126
141.52	-51.54	0.126
141.67	-52.27	0.126
141.82	-53.02	0.125
141.96	-53.75	0.125
142.11	-54.48	0.124
142.26	-55.26	0.124
142.40	-55.95	0.123
142.55	-56.72	0.122
142.70	-57.43	0.121
142.84	-58.16	0.120
142.99	-58.90	0.118
143.14	-59.67	0.117
143.29	-60.40	0.115
143.43	-61.10	0.112
143.58	-61.85	0.109
143.74	-62.64	0.106
143.88	-63.36	0.102
144.03	-64.11	0.099
144.17	-64.81	0.096
144.31	-65.54	0.093
144.47	-66.32	0.089
144.62	-67.07	0.086
144.76	-67.79	0.083
144.91	-68.53	0.080
145.06	-69.29	0.077
145.21	-70.02	0.074
145.35	-70.72	0.072
145.50	-71.47	0.070
145.64	-72.21	0.068
145.80	-72.99	0.066
145.94	-73.72	0.065
146.10	-74.48	0.063
146.24	-75.19	0.062
146.39	-75.95	0.060
146.53	-76.68	0.059
146.68	-77.40	0.058
146.83	-78.15	0.057
146.98	-78.88	0.056
147.12	-79.60	0.055
147.27	-80.36	0.054
147.42	-81.10	0.054
147.57	-81.84	0.053
147.71	-82.54	0.052
147.86	-83.28	0.052
148.01	-84.04	0.051
148.16	-84.77	0.050
148.30	-85.49	0.050
148.45	-86.22	0.049
148.60	-86.96	0.049
148.75	-87.71	0.048
148.89	-88.42	0.048
149.04	-89.15	0.048
149.19	-89.91	0.047
149.33	-90.60	0.047
149.48	-91.38	0.046
149.63	-92.09	0.046
149.78	-92.84	0.046
149.93	-93.58	0.045
150.07	-94.30	0.045
150.23	-95.07	0.045
150.37	-95.80	0.044
150.51	-96.51	0.044
150.67	-97.26	0.044
150.81	-97.97	0.043
150.95	-98.71	0.043
151.00	-98.95	0.043

[step]
Ramp 5.00 °C/min to 120.00 °C
Time	Temperature	Heat Flow (Normalized)	Heat Flow
min	°C	W/g	mW
151.00	-98.96	0.043	0.552
151.15	-99.25	0.067	0.868
151.30	-98.85	-0.011	-0.147
151.44	-98.26	-0.060	-0.777
151.59	-97.55	-0.082	-1.051
151.74	-96.85	-0.089	-1.154
151.88	-96.15	-0.093	-1.194
152.03	-95.42	-0.094	-1.214
152.18	-94.63	-0.095	-1.231
152.32	-93.96	-0.096	-1.242
152.48	-93.19	-0.097	-1.251
152.62	-92.46	-0.097	-1.257
152.77	-91.74	-0.098	-1.263
152.91	-91.00	-0.098	-1.268
153.07	-90.24	-0.099	-1.273
153.21	-89.53	-0.099	-1.277
153.35	-88.81	-0.099	-1.281
153.50	-88.07	-0.100	-1.285
153.65	-87.33	-0.100	-1.289
153.79	-86.60	-0.100	-1.293
153.94	-85.88	-0.101	-1.297
154.08	-85.14	-0.101	-1.301
154.21	-84.52	-0.101	-1.304
154.38	-83.67	-0.101	-1.309
154.53	-82.94	-0.102	-1.314
154.67	-82.24	-0.102	-1.318
154.81	-81.51	-0.103	-1.323
154.97	-80.73	-0.103	-1.328
155.11	-80.04	-0.103	-1.333
155.26	-79.29	-0.104	-1.338
155.40	-78.55	-0.104	-1.344
155.55	-77.80	-0.105	-1.349
155.70	-77.07	-0.105	-1.355
155.84	-76.37	-0.106	-1.362
155.99	-75.62	-0.106	-1.369
156.14	-74.88	-0.107	-1.376
156.28	-74.17	-0.107	-1.385
156.43	-73.40	-0.108	-1.395
156.58	-72.68	-0.109	-1.405
156.72	-71.98	-0.110	-1.416
156.91	-71.05	-0.111	-1.433
157.02	-70.48	-0.112	-1.444
157.16	-69.78	-0.113	-1.458
157.31	-69.05	-0.114	-1.477
157.46	-68.31	-0.116	-1.498
157.60	-67.58	-0.118	-1.520
157.75	-66.85	-0.120	-1.547
157.88	-66.18	-0.122	-1.580
158.04	-65.39	-0.126	-1.623
158.19	-64.67	-0.129	-1.670
158.34	-63.93	-0.133	-1.719
158.49	-63.18	-0.138	-1.777
158.63	-62.45	-0.142	-1.837
158.78	-61.75	-0.147	-1.895
158.92	-61.02	-0.151	-1.947
159.07	-60.29	-0.155	-2.004
159.22	-59.57	-0.159	-2.055
159.37	-58.81	-0.162	-2.096
159.51	-58.12	-0.165	-2.129
159.63	-57.49	-0.167	-2.155
159.80	-56.63	-0.170	-2.187
159.95	-55.90	-0.171	-2.208
160.10	-55.15	-0.173	-2.228
160.29	-54.19	-0.174	-2.247
160.40	-53.67	-0.175	-2.256
160.54	-52.94	-0.176	-2.267
160.69	-52.22	-0.176	-2.276
160.83	-51.50	-0.177	-2.282
160.98	-50.77	-0.177	-2.288
161.17	-49.83	-0.178	-2.293
161.27	-49.29	-0.178	-2.296
161.41	-48.59	-0.178	-2.299
161.55	-47.91	-0.178	-2.300
161.71	-47.09	-0.178	-2.302
161.86	-46.35	-0.179	-2.303
162.00	-45.63	-0.179	-2.305
162.16	-44.87	-0.179	-2.306
162.30	-44.14	-0.179	-2.308
162.45	-43.43	-0.179	-2.308
162.60	-42.68	-0.179	-2.308
162.75	-41.92	-0.179	-2.308
162.89	-41.19	-0.179	-2.307
163.03	-40.49	-0.179	-2.306
163.18	-39.77	-0.179	-2.305
163.33	-39.01	-0.179	-2.304
163.47	-38.29	-0.179	-2.303
163.62	-37.55	-0.179	-2.303
163.76	-36.83	-0.178	-2.302
163.91	-36.09	-0.178	-2.302
164.07	-35.32	-0.178	-2.300
164.20	-34.62	-0.178	-2.298
164.34	-33.93	-0.178	-2.297
164.50	-33.16	-0.178	-2.296
164.66	-32.33	-0.178	-2.294
164.79	-31.68	-0.178	-2.293
164.94	-30.94	-0.178	-2.292
165.13	-30.00	-0.178	-2.291
165.23	-29.46	-0.178	-2.290
165.38	-28.74	-0.177	-2.290
165.52	-28.05	-0.177	-2.288
165.68	-27.25	-0.177	-2.288
165.82	-26.53	-0.177	-2.286
165.97	-25.81	-0.177	-2.286
166.11	-25.07	-0.177	-2.284
166.26	-24.32	-0.177	-2.284
166.40	-23.64	-0.177	-2.283
166.55	-22.87	-0.177	-2.283
166.70	-22.13	-0.177	-2.282
166.84	-21.42	-0.177	-2.281
167.00	-20.65	-0.177	-2.280
167.14	-19.92	-0.177	-2.279
167.28	-19.21	-0.177	-2.278
167.43	-18.46	-0.177	-2.277
167.58	-17.73	-0.176	-2.276
167.73	-16.99	-0.176	-2.275
167.87	-16.28	-0.176	-2.274
168.02	-15.53	-0.176	-2.273
168.17	-14.80	-0.176	-2.273
168.30	-14.13	-0.176	-2.272
168.46	-13.33	-0.176	-2.271
168.61	-12.59	-0.176	-2.270
168.75	-11.88	-0.176	-2.270
168.90	-11.10	-0.176	-2.269
169.05	-10.40	-0.176	-2.269
169.19	-9.66	-0.176	-2.268
169.33	-8.96	-0.176	-2.267
169.48	-8.20	-0.176	-2.267
169.63	-7.49	-0.176	-2.266
169.78	-6.74	-0.176	-2.265
169.92	-6.00	-0.176	-2.265
170.07	-5.29	-0.176	-2.264
170.22	-4.51	-0.176	-2.264
170.36	-3.80	-0.175	-2.263
170.52	-3.04	-0.175	-2.263
170.66	-2.32	-0.175	-2.263
170.81	-1.58	-0.175	-2.262
170.95	-0.89	-0.175	-2.263
171.10	-0.11	-0.175	-2.262
171.23	0.54	-0.175	-2.262
171.39	1.35	-0.175	-2.262
171.54	2.09	-0.175	-2.262
171.68	2.81	-0.175	-2.263
171.84	3.57	-0.175	-2.263
171.98	4.26	-0.175	-2.263
172.13	5.01	-0.175	-2.264
172.27	5.73	-0.175	-2.264
172.41	6.46	-0.176	-2.265
172.56	7.19	-0.176	-2.265
172.72	7.97	-0.176	-2.266
172.85	8.66	-0.176	-2.266
173.01	9.43	-0.176	-2.267
173.16	10.17	-0.176	-2.268
173.30	10.88	-0.176	-2.268
173.45	11.63	-0.176	-2.268
173.58	12.31	-0.176	-2.269
173.74	13.09	-0.176	-2.270
173.89	13.83	-0.176	-2.271
174.03	14.56	-0.176	-2.272
174.18	15.27	-0.176	-2.274
174.32	16.01	-0.176	-2.274
174.47	16.75	-0.176	-2.276
174.62	17.48	-0.177	-2.277
174.81	18.45	-0.177	-2.279
174.91	18.93	-0.177	-2.280
175.05	19.62	-0.177	-2.280
175.20	20.40	-0.177	-2.281
175.35	21.15	-0.177	-2.283
175.50	21.90	-0.177	-2.284
175.65	22.63	-0.177	-2.284
175.80	23.40	-0.177	-2.286
175.93	24.06	-0.177	-2.286
176.08	24.81	-0.177	-2.287
176.23	25.56	-0.177	-2.288
176.37	26.27	-0.177	-2.289
176.53	27.03	-0.177	-2.290
176.68	27.77	-0.178	-2.290
176.82	28.50	-0.178	-2.290
176.97	29.23	-0.178	-2.291
177.11	29.97	-0.178	-2.292
177.26	30.70	-0.178	-2.293
177.41	31.44	-0.178	-2.293
177.55	32.13	-0.178	-2.294
177.70	32.90	-0.178	-2.295
177.85	33.63	-0.178	-2.296
177.99	34.36	-0.178	-2.297
178.13	35.07	-0.178	-2.298
178.29	35.85	-0.178	-2.299
178.43	36.57	-0.178	-2.300
178.58	37.31	-0.178	-2.300
178.73	38.06	-0.178	-2.302
178.87	38.76	-0.178	-2.303
179.02	39.51	-0.178	-2.303
179.16	40.22	-0.179	-2.303
179.31	40.97	-0.179	-2.304
179.46	41.70	-0.179	-2.305
179.61	42.45	-0.179	-2.307
179.75	43.17	-0.179	-2.307
179.90	43.89	-0.179	-2.308
180.05	44.65	-0.179	-2.309
180.20	45.39	-0.179	-2.309
180.34	46.11	-0.179	-2.311
180.48	46.83	-0.179	-2.312
180.64	47.59	-0.179	-2.313
180.78	48.30	-0.179	-2.313
180.92	49.03	-0.179	-2.315
181.07	49.75	-0.179	-2.315
181.22	50.52	-0.180	-2.316
181.37	51.26	-0.180	-2.317
181.52	51.99	-0.180	-2.318
181.66	52.70	-0.180	-2.318
181.81	53.46	-0.180	-2.320
181.95	54.18	-0.180	-2.321
182.10	54.90	-0.180	-2.322
182.24	55.63	-0.180	-2.322
182.39	56.37	-0.180	-2.323
182.54	57.12	-0.180	-2.324
182.68	57.83	-0.180	-2.325
182.83	58.59	-0.180	-2.326
182.97	59.28	-0.180	-2.327
183.13	60.06	-0.180	-2.328
183.28	60.79	-0.181	-2.329
183.40	61.42	-0.181	-2.330
183.57	62.25	-0.181	-2.331
183.73	63.09	-0.181	-2.331
183.85	63.69	-0.181	-2.332
184.01	64.46	-0.181	-2.334
184.15	65.17	-0.181	-2.335
184.30	65.91	-0.181	-2.336
184.45	66.67	-0.181	-2.338
184.59	67.38	-0.181	-2.339
184.74	68.12	-0.181	-2.339
184.88	68.83	-0.181	-2.340
185.03	69.58	-0.181	-2.341
185.18	70.34	-0.182	-2.343
185.33	71.06	-0.182	-2.344
185.47	71.79	-0.182	-2.346
185.62	72.54	-0.182	-2.347
185.77	73.25	-0.182	-2.349
185.91	73.99	-0.182	-2.350
186.06	74.72	-0.182	-2.351
186.20	75.42	-0.182	-2.352
186.35	76.19	-0.182	-2.353
186.50	76.94	-0.183	-2.354
186.64	77.65	-0.183	-2.355
186.79	78.40	-0.183	-2.357
186.94	79.11	-0.183	-2.359
187.09	79.87	-0.183	-2.360
187.22	80.51	-0.183	-2.361
187.37	81.28	-0.183	-2.363
187.52	82.02	-0.183	-2.364
187.68	82.81	-0.183	-2.365
187.82	83.55	-0.183	-2.367
187.97	84.26	-0.184	-2.368
188.12	85.01	-0.184	-2.370
188.26	85.73	-0.184	-2.372
188.40	86.43	-0.184	-2.374
188.55	87.20	-0.184	-2.375
188.70	87.91	-0.184	-2.376
188.84	88.65	-0.184	-2.376
189.00	89.41	-0.184	-2.376
189.13	90.07	-0.184	-2.376
189.28	90.84	-0.184	-2.377
189.43	91.61	-0.184	-2.378
189.58	92.35	-0.184	-2.378
189.72	93.05	-0.184	-2.378
189.87	93.77	-0.184	-2.377
190.02	94.55	-0.184	-2.378
190.16	95.25	-0.184	-2.378
190.32	96.01	-0.184	-2.379
190.46	96.74	-0.184	-2.380
190.60	97.45	-0.185	-2.382
190.75	98.20	-0.185	-2.384
190.90	98.96	-0.185	-2.391
191.05	99.67	-0.186	-2.402
191.19	100.37	-0.187	-2.414
191.34	101.15	-0.188	-2.424
191.48	101.86	-0.188	-2.425
191.63	102.60	-0.187	-2.415
191.78	103.32	-0.187	-2.407
191.92	104.06	-0.186	-2.403
192.07	104.77	-0.186	-2.402
192.23	105.57	-0.186	-2.402
192.37	106.28	-0.186	-2.403
192.52	107.02	-0.186	-2.403
192.66	107.75	-0.186	-2.405
192.80	108.47	-0.187	-2.407
192.95	109.19	-0.187	-2.407
193.10	109.94	-0.187	-2.409
193.26	110.73	-0.187	-2.411
193.40	111.43	-0.187	-2.412
193.54	112.16	-0.187	-2.413
193.68	112.87	-0.187	-2.414
193.83	113.61	-0.187	-2.415
193.98	114.34	-0.187	-2.416
194.13	115.08	-0.187	-2.416
194.27	115.81	-0.187	-2.417
194.42	116.54	-0.187	-2.418
194.56	117.24	-0.188	-2.420
194.71	118.01	-0.188	-2.420
194.86	118.75	-0.188	-2.421
194.88	118.87	-0.188	-2.421